# f/Hz U/V
10.00 12.67
12.08 12.67
14.94 12.75
17.96 12.83
20.01 12.83
30.00 12.86
50.00 12.51
80.50 11.96
100.00 11.48
200.36 9.11
300.00 7.29
500.00 4.79
799.36 3.17
1000.00 2.53
2000.00 1.29
3004.00 0.879
3500.00 0.768
5000.00 0.522
8000.00 0.327
10000.00 0.263
20000.00 0.131
50000.00 0.053
